wavelength,flux
4989.4781,5731.182
4990.1201,5731.226
4990.7622,5731.269
4991.4042,5734.053
4992.0462,5705.617
4992.6882,5601.12
4993.3302,5936.683
4993.9723,6032.549
4994.6143,6053.49
4995.2563,5909.187
4995.8983,5865.816
4996.5404,5935.92
4997.1824,6090.103
4997.8244,6197.294
4998.4664,6113.428
4999.1085,5953.275
4999.7505,5785.517
5000.3925,5549.059
5001.0345,5527.554
5001.6765,5300.827
5002.3186,5114.963
5002.9606,5299.941
5003.6026,5159.747
5004.2446,5207.586
5004.8867,5375.615
5005.5287,5376.524
5006.1707,5374.92
5006.8127,5308.339
5007.4548,5000.391
5008.0968,5096.172
5008.7388,5308.731
5009.3808,5547.237
5010.0229,5667.61
5010.6649,5758.359
5011.3069,5711.528
5011.9489,5670.079
5012.5909,5607.734
5013.233,5394.86
5013.875,5168.517
5014.517,4983.853
5015.159,4942.528
5015.8011,4933.918
5016.4431,4968.71
5017.0851,5060.793
5017.7271,5423.387
5018.3692,5280.536
5019.0112,5640.157
5019.6532,5618.973
5020.2952,5651.218
5020.9373,5683.566
5021.5793,5679.857
5022.2213,5600.723
5022.8633,5533.275
5023.5053,5379.058
5024.1474,5309.669
5024.7894,5451.257
5025.4314,5818.205
5026.0734,5898.75
5026.7155,5837.881
5027.3575,5861.469
5027.9995,5742.185
5028.6415,5683.658
5029.2836,5589.494
5029.9256,5634.723
5030.5676,5991.757
5031.2096,6127.367
5031.8516,6132.889
5032.4937,6560.558
5033.1357,6576.704
5033.7777,6356.655
5034.4197,6257.507
5035.0618,6294.28
5035.7038,6254.879
5036.3458,5901.129
5036.9878,5725.155
5037.6299,5431.42
5038.2719,5432.429
5038.9139,5458.112
5039.5559,5396.896
5040.198,5308.98
5040.84,5141.935
5041.482,4932.997
5042.124,4845.773
5042.766,4919.195
5043.4081,5129.584
5044.0501,5759.391
5044.6921,5994.933
5045.3341,6166.771
5045.9762,6312.042
5046.6182,6483.827
5047.2602,6668.025
5047.9022,6523.071
5048.5443,6262.783
5049.1863,6016.211
5049.8283,5829.513
5050.4703,5670.831
5051.1123,5581.931
5051.7544,5637.373
5052.3964,5882.06
5053.0384,5959.282
5053.6804,6040.892
5054.3225,6126.859
5054.9645,6248.696
5055.6065,6397.558
5056.2485,6497.655
5056.8906,6519.676
5057.5326,6431.649
5058.1746,6646.272
5058.8166,6666.206
5059.4587,6645.225
5060.1007,6821.374
5060.7427,6686.843
5061.3847,6570.906
5062.0267,6748.422
5062.6688,6689.575
5063.3108,6396.996
5063.9528,6466.582
5064.5948,6294.168
5065.2369,5934.229
5065.8789,5684.304
5066.5209,5566.166
5067.1629,5714.625
5067.805,5973.087
5068.447,6092.728
5069.089,5980.833
5069.731,5799.722
5070.3731,5783.345
5071.0151,6024.143
5071.6571,6239.952
5072.2991,6202.511
5072.9411,6083.831
5073.5832,5908.815
5074.2252,6044.014
5074.8672,6079.762
5075.5092,6168.572
5076.1513,6243.909
5076.7933,6305.634
5077.4353,5971.543
5078.0773,6090.543
5078.7194,6009.208
5079.3614,5989.729
5080.0034,5807.179
5080.6454,5445.021
5081.2874,5246.055
5081.9295,5381.152
5082.5715,5678.116
5083.2135,5706.173
5083.8555,5741.406
5084.4976,5800.903
5085.1396,5920.213
5085.7816,6223.087
5086.4236,6403.408
5087.0657,6614.208
5087.7077,6770.338
5088.3497,6598.313
5088.9917,6573.859
5089.6338,6435.024
5090.2758,6594.954
5090.9178,6597.089
5091.5598,6499.694
5092.2018,6545.14
5092.8439,6630.515
5093.4859,6852.813
5094.1279,6745.404
5094.7699,6980.621
5095.412,6854.189
5096.054,6671.884
5096.696,6340.298
5097.338,6180.234
5097.9801,6001.135
5098.6221,5977.028
5099.2641,6142.85
5099.9061,6142.803
5100.5481,5985.21
5101.1902,5936.678
5101.8322,6316.725
5102.4742,6418.086
5103.1162,6301.555
5103.7583,6349.02
5104.4003,6416.563
5105.0423,6204.396
5105.6843,6332.136
5106.3264,5979.86
5106.9684,6286.262
5107.6104,6077.078
5108.2524,5995.958
5108.8945,6038.972
5109.5365,5996.221
5110.1785,6053.937
5110.8205,6134.302
5111.4625,6260.138
5112.1046,6351.148
5112.7466,6497.527
5113.3886,6635.375
5114.0306,6699.812
5114.6727,6731.606
5115.3147,6832.833
5115.9567,6970.583
5116.5987,7016.003
5117.2408,7073.326
5117.8828,6974.47
5118.5248,6962.007
5119.1668,7020.552
5119.8088,6915.715
5120.4509,6779.05
5121.0929,6673.696
5121.7349,6660.299
5122.3769,6285.498
5123.019,6237.388
5123.661,6284.993
5124.303,6025.18
5124.945,6108.772
5125.5871,5872.361
5126.2291,5936.72
5126.8711,5870.11
5127.5131,5978.816
5128.1552,6115.939
5128.7972,6095.354
5129.4392,6100.338
5130.0812,6229.444
5130.7232,6359.861
5131.3653,6317.259
5132.0073,6307.69
5132.6493,6574.862
5133.2913,6784.474
5133.9334,6859.359
5134.5754,6773.796
5135.2174,6758.551
5135.8594,6480.59
5136.5015,6787.031
5137.1435,6859.351
5137.7855,6495.18
5138.4275,6443.93
5139.0696,6326.331
5139.7116,6181.159
5140.3536,5995.4
5140.9956,6092.273
5141.6376,6268.373
5142.2797,6508.379
5142.9217,6616.159
5143.5637,6436.268
5144.2057,6256.429
5144.8478,6330.238
5145.4898,6478.338
5146.1318,6446.083
5146.7738,6274.868
5147.4159,6281.486
5148.0579,6334.243
5148.6999,6286.72
5149.3419,6313.185
5149.9839,6386.195
5150.626,6669.661
5151.268,6374.536
5151.91,6083.185
5152.552,6156.097
5153.1941,6118.966
5153.8361,6321.924
5154.4781,6137.064
5155.1201,6098.063
5155.7622,6269.827
5156.4042,6633.538
5157.0462,6942.978
5157.6882,7111.057
5158.3303,7263.809
5158.9723,7375.472
5159.6143,7456.811
5160.2563,7599.564
5160.8983,7531.382
5161.5404,7286.812
5162.1824,7264.46
5162.8244,7152.655
5163.4664,6761.439
5164.1085,6388.844
5164.7505,6277.239
5165.3925,6155.182
5166.0345,5916.715
5166.6766,5371.98
5167.3186,5027.13
5167.9606,4843.813
5168.6026,4442.061
5169.2446,4495.517
5169.8867,4710.465
5170.5287,4894.469
5171.1707,4991.795
5171.8127,4941.817
5172.4548,4660.338
5173.0968,4391.016
5173.7388,4373.215
5174.3808,4566.779
5175.0229,4985.696
5175.6649,5594.667
5176.3069,6109.421
5176.9489,6287.046
5177.591,6383.723
5178.233,6385.288
5178.875,6269.79
5179.517,6372.855
5180.159,6044.102
5180.8011,5679.15
5181.4431,5361.559
5182.0851,5084.437
5182.7271,4633.2
5183.3692,4329.758
5184.0112,4272.697
5184.6532,4422.499
5185.2952,4684.861
5185.9373,5180.889
5186.5793,5874.347
5187.2213,6386.116
5187.8633,6749.271
5188.5054,7120.349
5189.1474,7206.372
5189.7894,7080.143
5190.4314,6994.506
5191.0734,7073.523
5191.7155,7109.508
5192.3575,6841.985
5192.9995,6488.848
5193.6415,6227.655
5194.2836,6491.755
5194.9256,6730.508
5195.5676,7108.793
5196.2096,7250.38
5196.8517,7262.759
5197.4937,7407.208
5198.1357,7922.591
5198.7777,8061.826
5199.4197,7950.134
5200.0618,7853.95
5200.7038,7851.616
5201.3458,7672.782
5201.9878,7816.079
5202.6299,7490.792
5203.2719,7082.631
5203.9139,6885.766
5204.5559,6697.368
5205.198,6247.081
5205.84,5785.555
5206.482,5570.278
5207.124,5473.219
5207.7661,5383.604
5208.4081,5464.972
5209.0501,5722.689
5209.6921,5872.167
5210.3341,5906.062
5210.9762,6720.782
5211.6182,7212.817
5212.2602,7588.815
5212.9022,7980.604
5213.5443,8341.207
5214.1863,8531.953
5214.8283,8466.264
5215.4703,8259.246
5216.1124,8291.754
5216.7544,8031.634
5217.3964,7841.613
5218.0384,8119.795
5218.6804,8446.824
5219.3225,8532.031
5219.9645,8777.662
5220.6065,8993.571
5221.2485,9024.329
5221.8906,9005.8
5222.5326,9047.183
5223.1746,8880.426
5223.8166,8482.6
5224.4587,8255.406
5225.1007,7860.599
5225.7427,7493.996
5226.3847,7116.831
5227.0268,7175.793
5227.6688,6894.736
5228.3108,7009.505
5228.9528,7435.745
5229.5948,7983.728
5230.2369,8556.929
5230.8789,8412.849
5231.5209,8550.026
5232.1629,8602.605
5232.805,8606.02
5233.447,8362.854
5234.089,8204.01
5234.731,8209.528
5235.3731,8609.026
5236.0151,8935.27
5236.6571,9119.317
5237.2991,9196.867
5237.9411,9468.846
5238.5832,9838.461
5239.2252,9853.299
5239.8672,9666.656
5240.5092,9555.383
5241.1513,9514.211
5241.7933,9586.48
5242.4353,9870.467
5243.0773,9608.258
5243.7194,9378.914
5244.3614,9236.431
5245.0034,9573.07
5245.6454,9756.151
5246.2875,9583.004
5246.9295,9266.432
5247.5715,9044.076
5248.2135,8859.165
5248.8555,8543.285
5249.4976,8590.189
5250.1396,8769.518
5250.7816,8736.439
5251.4236,8652.5
5252.0657,8584.532
5252.7077,8646.122
5253.3497,8920.07
5253.9917,9270.234
5254.6338,9350.719
5255.2758,9210.358
5255.9178,9234.605
5256.5598,9458.832
5257.2019,9576.156
5257.8439,9920.893
5258.4859,10206.61
5259.1279,9985.351
5259.7699,9897.775
5260.412,9761.053
5261.054,9557.287
5261.696,9085.181
5262.338,8351.916
5262.9801,8060.401
5263.6221,7570.438
5264.2641,7140.423
5264.9061,6979.062
5265.5482,6865.096
5266.1902,6705.347
5266.8322,7019.013
5267.4742,5025.463
5268.1162,6009.34
5268.7583,7202.495
5269.4003,7121.005
5270.0423,6872.611
5270.6843,6518.59
5271.3264,6596.118
5271.9684,7104.08
5272.6104,7687.649
5273.2524,8251.248
5273.8945,8605.964
5274.5365,8701.959
5275.1785,8916.963
5275.8205,9093.6
5276.4626,9217.324
5277.1046,9330.486
5277.7466,9457.942
5278.3886,9730.51
5279.0306,10118.05
5279.6727,10422.22
5280.3147,9957.537
5280.9567,9611.892
5281.5987,9325.128
5282.2408,9138.77
5282.8828,8916.059
5283.5248,8843.434
5284.1668,8980.281
5284.8089,9108.113
5285.4509,9367.192
5286.0929,9842.939
5286.7349,10291.81
5287.3769,10587.83
5288.019,10731.06
5288.661,10714.31
5289.303,10633.97
5289.945,10597.66
5290.5871,10649.06
5291.2291,10612.17
5291.8711,10821.81
5292.5131,10693.62
5293.1552,10595.96
5293.7972,10408.58
5294.4392,10105.39
5295.0812,9969.359
5295.7233,9812.561
5296.3653,9767.072
5297.0073,9332.105
5297.6493,8888.081
5298.2913,8459.281
5298.9334,8319.223
5299.5754,8346.488
5300.2174,8888.266
5300.8594,9507.025
5301.5015,9736.398
5302.1435,9797.748
5302.7855,9900.309
5303.4275,10010.69
5304.0696,10244.11
5304.7116,10560.04
5305.3536,10807.69
5305.9956,10957.26
5306.6376,10979.65
5307.2797,10935.55
5307.9217,11047.45
5308.5637,10951.04
5309.2057,10825.25
5309.8478,10783.48
5310.4898,11173.43
5311.1318,11010.46
5311.7738,11217.32
5312.4159,11367.23
5313.0579,11214.88
5313.6999,11116.22
5314.3419,11181.77
5314.984,10918.87
5315.626,11023.96
5316.268,10903.37
5316.91,10733.27
5317.552,10799.33
5318.1941,10802.75
5318.8361,10731.98
5319.4781,10816.82
5320.1201,10829.24
5320.7622,10773.14
5321.4042,10519.66
5322.0462,10206.1
5322.6882,10075.9
5323.3303,9973.467
5323.9723,9859.026
5324.6143,9428.47
5325.2563,8934.181
5325.8984,8743.0
5326.5404,8904.834
5327.1824,9001.689
5327.8244,8810.756
5328.4664,8198.561
5329.1085,7543.772
5329.7505,7628.379
5330.3925,8156.696
5331.0345,9094.844
5331.6766,10029.02
5332.3186,10335.6
5332.9606,10600.31
5333.6026,10718.13
5334.2447,10513.88
5334.8867,10647.95
5335.5287,10663.26
5336.1707,11027.21
5336.8127,11158.84
5337.4548,10851.53
5338.0968,10532.06
5338.7388,10314.13
5339.3808,10246.99
5340.0229,10113.0
5340.6649,9674.264
5341.3069,9417.391
5341.9489,9519.49
5342.591,9667.016
5343.233,10105.79
5343.875,10536.14
5344.517,10548.15
5345.1591,10665.11
5345.8011,10627.12
5346.4431,10462.87
5347.0851,10091.83
5347.7271,10195.94
5348.3692,10423.16
5349.0112,10423.58
5349.6532,10120.71
5350.2952,10156.17
5350.9373,10347.34
5351.5793,10774.92
5352.2213,11148.53
5352.8633,11257.97
5353.5054,11464.67
5354.1474,11528.39
5354.7894,11343.51
5355.4314,11636.59
5356.0734,12050.75
5356.7155,12031.49
5357.3575,11959.49
5357.9995,12174.85
5358.6415,12302.08
5359.2836,12127.79
5359.9256,12181.38
5360.5676,11967.92
5361.2096,11808.35
5361.8517,11522.34
5362.4937,11349.61
5363.1357,11143.9
5363.7777,11329.94
5364.4198,11024.12
5365.0618,11002.48
5365.7038,10852.39
5366.3458,10602.03
5366.9878,10664.48
5367.6299,10683.37
5368.2719,10574.21
5368.9139,10254.37
5369.5559,10148.5
5370.198,9896.514
5370.84,9367.753
5371.482,9176.424
5372.124,9117.939
5372.7661,9299.529
5373.4081,9914.053
5374.0501,10724.65
5374.6921,11286.92
5375.3342,11340.88
5375.9762,11400.63
5376.6182,11829.65
5377.2602,12048.67
5377.9022,11892.81
5378.5443,11645.04
5379.1863,11669.51
5379.8283,11690.14
5380.4703,11829.95
5381.1124,11872.61
5381.7544,11767.04
5382.3964,11503.64
5383.0384,11515.08
5383.6805,11555.22
5384.3225,11027.0
5384.9645,10923.65
5385.6065,11421.88
5386.2485,11464.51
5386.8906,11736.52
5387.5326,11753.14
5388.1746,11667.24
5388.8166,11392.31
5389.4587,11403.81
5390.1007,11318.82
5390.7427,10975.42
5391.3847,10727.5
5392.0268,10663.2
5392.6688,10599.72
5393.3108,10579.12
5393.9528,10501.2
5394.5949,10273.13
5395.2369,10170.23
5395.8789,10146.28
5396.5209,10357.87
5397.1629,10234.71
5397.805,9984.058
5398.447,9596.979
5399.089,9928.123
5399.731,10733.72
5400.3731,10990.73
5401.0151,11164.97
5401.6571,10998.62
5402.2991,10827.66
5402.9412,10750.49
5403.5832,10671.89
5404.2252,10667.15
5404.8672,9955.979
5405.5092,9627.469
5406.1513,9343.864
5406.7933,9261.533
5407.4353,9218.198
5408.0773,9668.498
5408.7194,10294.08
5409.3614,10439.81
5410.0034,10460.18
5410.6454,10438.75
5411.2875,10284.54
5411.9295,10323.02
5412.5715,10609.95
5413.2135,11070.79
5413.8556,11549.93
5414.4976,11730.61
5415.1396,11763.16
5415.7816,12006.33
5416.4236,12215.91
5417.0657,12239.83
5417.7077,12503.29
5418.3497,12690.23
5418.9917,12516.69
5419.6338,12377.14
5420.2758,12269.17
5420.9178,12029.82
5421.5598,11486.31
5422.2019,11559.7
5422.8439,11810.48
5423.4859,11940.99
5424.1279,11723.79
5424.7699,11448.73
5425.412,11619.02
5426.054,11432.01
5426.696,11682.6
5427.338,11832.83
5427.9801,11879.14
5428.6221,11836.98
5429.2641,11426.5
5429.9061,10920.9
5430.5482,10509.78
5431.1902,10270.9
5431.8322,10463.53
5432.4742,10931.89
5433.1163,11061.33
5433.7583,10673.42
5434.4003,10449.21
5435.0423,10563.74
5435.6843,10651.43
5436.3264,10728.79
5436.9684,11137.87
5437.6104,11587.79
5438.2524,11949.43
5438.8945,12464.61
5439.5365,12422.84
5440.1785,12768.49
5440.8205,12769.21
5441.4626,12664.22
5442.1046,12900.84
5442.7466,12714.47
5443.3886,12565.97
5444.0307,12193.8
5444.6727,12005.17
5445.3147,11614.47
5445.9567,11348.31
5446.5987,10784.9
5447.2408,10369.13
5447.8828,10245.64
5448.5248,10539.48
5449.1668,11067.05
5449.8089,11582.67
5450.4509,12038.05
5451.0929,12375.98
5451.7349,12367.72
5452.377,12053.69
5453.019,11877.75
5453.661,11621.81
5454.303,11385.54
5454.945,11281.64
5455.5871,10977.53
5456.2291,10601.76
5456.8711,10651.67
5457.5131,10803.34
5458.1552,11572.04
5458.7972,12346.11
5459.4392,12287.58
5460.0812,12211.57
5460.7233,11974.33
5461.3653,11833.23
5462.0073,11547.91
5462.6493,11355.6
5463.2914,11570.07
5463.9334,11160.66
5464.5754,11284.28
5465.2174,11463.48
5465.8594,11974.5
5466.5015,12150.23
5467.1435,12162.75
5467.7855,12110.6
5468.4275,12053.33
5469.0696,12299.08
5469.7116,12483.83
5470.3536,12238.99
5470.9956,11918.36
5471.6377,11731.01
5472.2797,11617.91
5472.9217,11674.04
5473.5637,11803.37
5474.2057,11750.72
5474.8478,11394.79
5475.4898,11106.22
5476.1318,11123.24
5476.7738,11223.75
5477.4159,11113.09
5478.0579,10599.99
5478.6999,10831.05
5479.3419,11575.73
5479.984,11743.69
5480.626,12048.15
5481.268,12088.32
5481.91,11801.83
5482.5521,11437.55
5483.1941,11475.4
5483.8361,11841.52
5484.4781,12136.57
5485.1201,12242.71
5485.7622,12568.09
5486.4042,12544.35
5487.0462,12348.46
5487.6882,12227.16
5488.3303,12124.41
5488.9723,12002.77
5489.6143,12028.31
5490.2563,12371.79
5490.8984,12637.05
5491.5404,12611.08
5492.1824,12627.38
5492.8244,12740.04
5493.4665,12750.55
5494.1085,12757.42
5494.7505,12575.98
5495.3925,12430.29
5496.0345,12509.5
5496.6766,12285.92
5497.3186,12416.78
5497.9606,12094.19
5498.6026,11775.6
5499.2447,12002.44
5499.8867,12143.22
5500.5287,12645.39
5501.1707,12665.82
5501.8128,12315.29
5502.4548,12119.87
5503.0968,11668.43
5503.7388,11776.42
5504.3808,11895.61
5505.0229,11929.2
5505.6649,11943.41
5506.3069,12091.33
5506.9489,11998.41
5507.591,11798.31
5508.233,11765.95
5508.875,11949.59
5509.517,12405.74
5510.1591,12605.95
5510.8011,12427.05
5511.4431,12129.53
5512.0851,11840.12
5512.7272,11622.22
5513.3692,11401.2
5514.0112,11183.99
5514.6532,11291.55
5515.2952,11535.75
5515.9373,11687.39
5516.5793,12201.15
5517.2213,12538.51
5517.8633,12372.11
5518.5054,12576.52
5519.1474,13083.37
5519.7894,13234.84
5520.4314,13091.09
5521.0735,13158.53
5521.7155,13172.69
5522.3575,13014.96
5522.9995,13173.38
5523.6415,13255.33
5524.2836,12844.24
5524.9256,12867.17
5525.5676,12603.14
5526.2096,12482.66
5526.8517,12340.01
5527.4937,12259.14
5528.1357,12096.87
5528.7777,11710.57
5529.4198,11445.35
5530.0618,11601.67
5530.7038,12117.97
5531.3458,12740.18
5531.9879,13044.05
5532.6299,12985.94
5533.2719,12879.48
5533.9139,12870.29
5534.5559,12954.28
5535.198,12895.2
5535.84,12838.53
5536.482,12838.31
5537.124,12637.93
5537.7661,12616.86
5538.4081,12600.24
5539.0501,12919.07
5539.6921,12824.76
5540.3342,12839.03
5540.9762,13079.71
5541.6182,13124.43
5542.2602,13331.4
5542.9022,13425.15
5543.5443,13159.78
5544.1863,12657.99
5544.8283,12594.9
5545.4703,12527.72
5546.1124,13069.84
5546.7544,13353.05
5547.3964,13320.21
5548.0384,13231.51
5548.6805,13211.84
5549.3225,13444.93
5549.9645,13603.06
5550.6065,13644.93
5551.2486,13608.22
5551.8906,13341.67
5552.5326,13284.75
5553.1746,13357.05
5553.8166,13454.84
5554.4587,13280.16
5555.1007,12961.65
5555.7427,12809.55
5556.3847,12894.55
5557.0268,12936.95
5557.6688,13049.69
5558.3108,13246.25
5558.9528,13155.64
5559.5949,13109.87
5560.2369,13075.44
5560.8789,13214.68
5561.5209,13070.97
5562.163,12878.13
5562.805,12827.38
5563.447,12765.32
5564.089,12478.27
5564.731,12523.7
5565.3731,12697.13
5566.0151,12278.1
5566.6571,12295.88
5567.2991,12153.9
5567.9412,12251.07
5568.5832,12243.74
5569.2252,12296.31
5569.8672,12582.08
5570.5093,12072.26
5571.1513,12084.98
5571.7933,12226.51
5572.4353,12451.27
5573.0773,12362.53
5573.7194,12208.52
5574.3614,12010.27
5575.0034,12596.19
5575.6454,13134.84
5576.2875,13273.29
5576.9295,13116.79
5577.5715,12908.74
5578.2135,13190.23
5578.8556,13360.61
5579.4976,13365.29
5580.1396,13366.03
5580.7816,13224.85
5581.4237,13197.9
5582.0657,13057.04
5582.7077,12777.09
5583.3497,12724.85
5583.9917,12625.22
5584.6338,12427.92
5585.2758,12358.37
5585.9178,12069.82
5586.5598,11587.31
5587.2019,11245.87
5587.8439,10743.57
5588.4859,10608.81
5589.1279,10656.23
5589.77,10612.47
5590.412,11185.86
5591.054,11486.18
5591.696,12011.69
5592.338,11978.01
5592.9801,12454.59
5593.6221,12478.21
5594.2641,12352.3
5594.9061,12239.86
5595.5482,12050.34
5596.1902,12186.27
5596.8322,12615.59
5597.4742,12777.63
5598.1163,12685.75
5598.7583,12329.82
5599.4003,12084.83
5600.0423,11659.37
5600.6844,11580.1
5601.3264,11958.26
5601.9684,11998.02
5602.6104,11841.85
5603.2524,11990.64
5603.8945,12275.46
5604.5365,12450.88
5605.1785,12878.86
5605.8205,13418.19
5606.4626,13563.92
5607.1046,13670.38
5607.7466,13758.46
5608.3886,13762.58
5609.0307,13723.5
5609.6727,13710.93
5610.3147,13650.37
5610.9567,13630.22
5611.5988,13706.07
5612.2408,13716.32
5612.8828,13185.22
5613.5248,13019.06
5614.1668,12975.67
5614.8089,12912.54
5615.4509,12089.23
5616.0929,11673.73
5616.7349,11456.36
5617.377,11373.06
5618.019,12122.15
5618.661,12601.88
5619.303,12800.79
5619.9451,12859.66
5620.5871,13050.74
5621.2291,12799.16
5621.8711,12840.21
5622.5131,12971.16
5623.1552,12907.12
5623.7972,13120.48
5624.4392,12976.75
5625.0812,12513.64
5625.7233,12349.02
5626.3653,12186.18
5627.0073,12515.8
5627.6493,12976.36
5628.2914,13291.74
5628.9334,13381.1
5629.5754,13267.62
5630.2174,13547.84
5630.8595,13794.47
5631.5015,13838.34
5632.1435,13869.71
5632.7855,13619.05
5633.4275,13722.91
5634.0696,13832.42
5634.7116,13533.78
5675.1591,14027.93
5675.8011,13748.0
5676.4431,13548.14
5677.0851,13657.51
5677.7272,13566.94
5678.3692,13641.63
5679.0112,13719.4
5679.6532,13472.85
5680.2953,13284.03
5680.9373,13286.35
5681.5793,13276.26
5682.2213,13034.92
5682.8633,13028.75
5683.5054,12872.45
5684.1474,12703.59
5684.7894,12876.28
5685.4314,13008.0
5686.0735,12986.94
5686.7155,13043.46
5687.3575,12957.18
5687.9995,12807.36
5688.6416,12874.9
5689.2836,12706.28
5689.9256,12729.78
5690.5676,13182.47
5691.2096,13405.76
5691.8517,13660.23
5692.4937,13562.12
5693.1357,13643.01
5693.7777,14046.88
5694.4198,13799.78
5695.0618,13469.14
5695.7038,13571.99
5696.3458,13412.03
5696.9879,13332.25
5697.6299,13453.82
5698.2719,13641.97
5698.9139,12969.33
5699.556,13157.38
5700.198,12910.41
5700.84,13010.95
5701.482,12729.59
5702.124,12904.68
5702.7661,12687.83
5703.4081,12733.03
5704.0501,12922.12
5704.6921,12927.45
5705.3342,13031.47
5705.9762,13121.98
5706.6182,12745.25
5707.2602,12479.37
5707.9023,12142.64
5708.5443,12087.72
5709.1863,12091.75
5709.8283,11979.17
5710.4703,11921.71
5711.1124,11893.16
