wavelength,flux
4989.1136,2876.097
4989.7557,2876.121
4990.3979,2876.147
4991.04,2878.901
4991.6822,3102.233
4992.3243,2943.497
4992.9665,2985.693
4993.6086,2851.594
4994.2507,2976.958
4994.8929,3044.707
4995.535,3267.108
4996.1772,3308.024
4996.8193,2992.896
4997.4615,2826.603
4998.1036,2960.317
4998.7458,3065.954
4999.3879,3018.109
5000.0301,3024.966
5000.6722,3021.854
5001.3144,2998.387
5001.9565,2922.425
5002.5987,2791.55
5003.2408,2768.154
5003.883,3008.817
5004.5251,2607.327
5005.1672,2604.153
5005.8094,2804.896
5006.4515,2911.646
5007.0937,2732.496
5007.7358,2670.288
5008.378,2701.236
5009.0201,2659.93
5009.6623,2757.07
5010.3044,2970.676
5010.9466,2921.651
5011.5887,2918.131
5012.2309,3003.977
5012.873,2807.017
5013.5152,2872.613
5014.1573,2859.554
5014.7995,2907.579
5015.4416,2575.313
5016.0838,2628.089
5016.7259,2662.177
5017.368,2478.22
5018.0102,2825.775
5018.6523,2774.957
5019.2945,2879.035
5019.9366,2870.853
5020.5788,3028.381
5021.2209,2875.182
5021.8631,2774.973
5022.5052,2967.52
5023.1474,2977.288
5023.7895,3008.986
5024.4317,3081.274
5025.0738,2934.382
5025.716,2872.615
5026.3581,2959.876
5027.0003,3057.249
5027.6424,3191.099
5028.2846,2888.366
5028.9267,3091.257
5029.5688,3009.092
5030.211,3065.297
5030.8531,3090.875
5031.4953,3064.596
5032.1374,3320.272
5032.7796,3190.265
5033.4217,3271.926
5034.0639,3429.616
5034.706,3393.646
5035.3482,3197.723
5035.9903,3356.76
5036.6325,3274.787
5037.2746,3122.894
5037.9168,3020.654
5038.5589,2795.939
5039.2011,2719.33
5039.8432,2797.467
5040.4853,2744.454
5041.1275,2806.664
5041.7696,2665.415
5042.4118,2560.071
5043.0539,2655.216
5043.6961,2789.026
5044.3382,2659.438
5044.9804,2848.397
5045.6225,3110.043
5046.2647,3364.085
5046.9068,3247.527
5047.549,3451.338
5048.1911,3211.136
5048.8333,3380.893
5049.4754,3306.06
5050.1176,3195.385
5050.7597,3129.747
5051.4019,2777.011
5052.044,2843.581
5052.6861,2869.802
5053.3283,2879.066
5053.9704,3085.843
5054.6126,3126.85
5055.2547,3345.954
5055.8969,3541.723
5056.539,3354.824
5057.1812,3324.274
5057.8233,3372.726
5058.4655,3386.488
5059.1076,3283.373
5059.7498,3450.974
5060.3919,3351.982
5061.0341,3574.2
5061.6762,3541.422
5062.3184,3684.561
5062.9605,3350.298
5063.6027,3412.603
5064.2448,3334.199
5064.8869,3277.632
5065.5291,3168.405
5066.1712,2908.691
5066.8134,2995.424
5067.4555,3058.439
5068.0977,2961.211
5068.7398,3105.842
5069.382,3250.605
5070.0241,3178.149
5070.6663,3173.186
5071.3084,3126.528
5071.9506,3033.35
5072.5927,3192.348
5073.2349,3338.291
5073.877,3107.204
5074.5192,3083.348
5075.1613,3138.713
5075.8034,3071.18
5076.4456,3244.534
5077.0877,3188.673
5077.7299,3088.754
5078.372,3208.869
5079.0142,3213.423
5079.6563,3143.668
5080.2985,3032.776
5080.9406,2944.485
5081.5828,2927.13
5082.2249,2835.674
5082.8671,2774.269
5083.5092,2881.844
5084.1514,2996.316
5084.7935,3174.583
5085.4357,3061.503
5086.0778,3105.225
5086.72,3278.015
5087.3621,3097.664
5088.0042,3280.264
5088.6464,3310.158
5089.2885,3473.689
5089.9307,3423.601
5090.5728,3406.062
5091.215,3484.512
5091.8571,3384.154
5092.4993,3372.606
5093.1414,3458.347
5093.7836,3525.89
5094.4257,3508.792
5095.0679,3550.204
5095.71,3534.158
5096.3522,3455.755
5096.9943,3362.409
5097.6365,3230.702
5098.2786,3136.2
5098.9207,3132.978
5099.5629,3242.737
5100.205,3297.557
5100.8472,3422.681
5101.4893,3248.6
5102.1315,3146.539
5102.7736,3201.86
5103.4158,3331.511
5104.0579,3408.523
5104.7001,3316.609
5105.3422,3346.302
5105.9844,3434.285
5106.6265,3363.931
5107.2687,3137.082
5107.9108,3304.157
5108.553,3360.19
5109.1951,3240.675
5109.8373,3100.419
5110.4794,3043.179
5111.1215,3174.626
5111.7637,3171.218
5112.4058,3141.052
5113.048,3307.287
5113.6901,3376.489
5114.3323,3479.919
5114.9744,3443.956
5115.6166,3334.121
5116.2587,3449.993
5116.9009,3486.274
5117.543,3572.788
5118.1852,3629.635
5118.8273,3816.28
5119.4695,3365.63
5120.1116,3569.107
5120.7538,3755.33
5121.3959,3546.335
5122.0381,3549.775
5122.6802,3384.577
5123.3223,3270.579
5123.9645,3245.704
5124.6066,3274.218
5125.2488,3188.113
5125.8909,3097.256
5126.5331,3073.615
5127.1752,3014.307
5127.8174,3078.333
5128.4595,3219.093
5129.1017,3255.589
5129.7438,3148.967
5130.386,3128.724
5131.0281,3023.594
5131.6703,3198.373
5132.3124,3157.551
5132.9546,3282.401
5133.5967,3461.552
5134.2388,3474.049
5134.881,3494.15
5135.5231,3681.967
5136.1653,3630.611
5136.8074,3477.908
5137.4496,3397.179
5138.0917,3487.744
5138.7339,3428.972
5139.376,3219.986
5140.0182,3378.574
5140.6603,3414.899
5141.3025,3185.244
5141.9446,3166.793
5142.5868,3289.128
5143.2289,3384.51
5143.8711,3404.443
5144.5132,3277.878
5145.1554,3324.402
5145.7975,3215.606
5146.4396,3224.82
5147.0818,3288.127
5147.7239,3108.741
5148.3661,3130.902
5149.0082,3129.814
5149.6504,3106.169
5150.2925,3191.843
5150.9347,3261.843
5151.5768,3352.586
5152.219,3323.94
5152.8611,3247.631
5153.5033,3287.175
5154.1454,3163.994
5154.7876,3048.93
5155.4297,3154.718
5156.0719,3302.889
5156.714,3346.188
5157.3561,3396.546
5157.9983,3576.499
5158.6404,3792.216
5159.2826,3858.059
5159.9247,3773.286
5160.5669,4100.187
5161.209,4034.466
5161.8512,3871.954
5162.4933,3953.248
5163.1355,3558.499
5163.7776,3509.88
5164.4198,3636.663
5165.0619,3288.176
5165.7041,3060.798
5166.3462,3114.622
5166.9884,3086.152
5167.6305,2772.038
5168.2727,2536.498
5168.9148,2516.318
5169.5569,2506.268
5170.1991,2388.75
5170.8412,2326.755
5171.4834,2457.317
5172.1255,2648.125
5172.7677,2669.205
5173.4098,2617.27
5174.052,2505.873
5174.6941,2294.398
5175.3363,2397.189
5175.9784,2506.96
5176.6206,2655.314
5177.2627,3018.075
5177.9049,3184.228
5178.547,3256.582
5179.1892,3230.339
5179.8313,3199.165
5180.4735,3093.43
5181.1156,2935.985
5181.7577,2903.196
5182.3999,2963.468
5183.042,2709.319
5183.6842,2449.883
5184.3263,2325.912
5184.9685,2375.479
5185.6106,2418.472
5186.2528,2480.741
5186.8949,2595.097
5187.5371,2800.023
5188.1792,3091.332
5188.8214,3397.816
5189.4635,3640.659
5190.1057,3496.749
5190.7478,3637.726
5191.39,3770.072
5192.0321,3579.433
5192.6742,3543.2
5193.3164,3485.423
5193.9585,3221.775
5194.6007,3356.646
5195.2428,3076.25
5195.885,3343.506
5196.5271,3802.283
5197.1693,3791.215
5197.8114,3958.497
5198.4536,3947.151
5199.0957,3904.071
5199.7379,4032.121
5200.38,3902.034
5201.0222,3885.977
5201.6643,4155.76
5202.3065,4126.14
5202.9486,3900.875
5203.5908,3800.855
5204.2329,3695.594
5204.875,3663.482
5205.5172,3411.199
5206.1593,3163.116
5206.8015,2942.726
5207.4436,2995.086
5208.0858,2976.432
5208.7279,2807.907
5209.3701,2792.679
5210.0122,2838.088
5210.6544,3098.254
5211.2965,3063.119
5211.9387,3528.505
5212.5808,3738.336
5213.223,3862.026
5213.8651,3843.141
5214.5073,4263.889
5215.1494,4498.332
5215.7915,4409.49
5216.4337,4284.898
5217.0758,4304.382
5217.718,4195.35
5218.3601,3971.95
5219.0023,4160.954
5219.6444,4407.409
5220.2866,4349.8
5220.9287,4541.128
5221.5709,4703.781
5222.213,4727.321
5222.8552,4483.574
5223.4973,4625.721
5224.1395,4564.968
5224.7816,4345.612
5225.4238,4189.825
5226.0659,4069.433
5226.7081,3949.491
5227.3502,3789.999
5227.9923,3684.636
5228.6345,3663.786
5229.2766,3688.977
5229.9188,3903.155
5230.5609,4052.702
5231.2031,4411.16
5231.8452,4570.372
5232.4874,4468.319
5233.1295,4481.663
5233.7717,4452.066
5234.4138,4388.826
5235.056,4339.695
5235.6981,4333.634
5236.3403,4567.179
5236.9824,4679.591
5237.6246,4741.678
5238.2667,4957.235
5238.9089,5108.848
5239.551,5035.221
5240.1931,4879.645
5240.8353,5127.424
5241.4774,4993.705
5242.1196,4845.631
5242.7617,4947.657
5243.4039,4780.054
5244.046,4794.12
5244.6882,4929.72
5245.3303,4937.026
5245.9725,4853.936
5246.6146,4867.327
5247.2568,5087.405
5247.8989,4888.519
5248.5411,4582.598
5249.1832,4437.287
5249.8254,4328.492
5250.4675,4406.437
5251.1096,4631.363
5251.7518,4686.274
5252.3939,4479.547
5253.0361,4278.095
5253.6782,4371.344
5254.3204,4755.528
5254.9625,4780.729
5255.6047,4819.373
5256.2468,4748.614
5256.889,4737.814
5257.5311,4954.776
5258.1733,5026.631
5258.8154,5049.474
5259.4576,5171.202
5260.0997,5134.603
5260.7419,5070.722
5261.384,4799.191
5262.0262,4842.696
5262.6683,4581.031
5263.3104,4315.697
5263.9526,4131.369
5264.5947,3863.179
5265.2369,3691.129
5265.879,3682.674
5266.5212,3693.597
5267.1633,2965.272
5267.8055,2686.25
5268.4476,3505.219
5269.0898,3336.22
5269.7319,3660.924
5270.3741,3789.073
5271.0162,3583.604
5271.6584,3442.55
5272.3005,3419.491
5272.9427,3700.464
5273.5848,3871.614
5274.227,4054.165
5274.8691,4461.13
5275.5112,4460.752
5276.1534,4682.794
5276.7955,4748.262
5277.4377,4753.561
5278.0798,4783.236
5278.722,4817.607
5279.3641,5013.156
5280.0063,5194.375
5280.6484,5254.558
5281.2906,5154.363
5281.9327,5001.711
5282.5749,4858.487
5283.217,4657.081
5283.8592,4498.323
5284.5013,4575.567
5285.1435,4751.307
5285.7856,4729.261
5286.4277,4696.579
5287.0699,5015.633
5287.712,5201.418
5288.3542,5477.09
5288.9963,5596.339
5289.6385,5501.257
5290.2806,5547.336
5290.9228,5201.171
5291.5649,5597.175
5292.2071,5546.41
5292.8492,5447.649
5293.4914,5395.753
5294.1335,5576.378
5294.7757,5273.059
5295.4178,5310.219
5296.06,5257.138
5296.7021,5220.769
5297.3443,5030.386
5297.9864,4767.533
5298.6285,4470.971
5299.2707,4296.72
5299.9128,4237.265
5300.555,4375.954
5301.1971,4653.471
5301.8393,4797.596
5302.4814,4940.145
5303.1236,5120.025
5303.7657,5309.129
5304.4079,5365.373
5305.05,5473.566
5305.6922,5518.178
5306.3343,5591.676
5306.9765,5520.351
5307.6186,5418.801
5308.2608,5513.158
5308.9029,5427.104
5309.545,5317.242
5310.1872,5489.79
5310.8293,5607.604
5311.4715,5973.461
5312.1136,5728.213
5312.7558,5470.643
5313.3979,5633.871
5314.0401,5841.538
5314.6822,5695.473
5315.3244,5645.444
5315.9665,5541.642
5316.6087,5550.987
5317.2508,5780.269
5317.893,5681.713
5318.5351,5554.481
5319.1773,5686.617
5319.8194,5812.483
5320.4616,5761.888
5321.1037,5556.889
5321.7458,5418.701
5322.388,5407.617
5323.0301,5492.21
5323.6723,5025.499
5324.3144,5343.625
5324.9566,5036.375
5325.5987,4903.951
5326.2409,4714.887
5326.883,4486.841
5327.5252,4315.236
5328.1673,4434.209
5328.8095,4387.937
5329.4516,4171.283
5330.0938,4008.496
5330.7359,4049.5
5331.3781,4086.199
5332.0202,4526.466
5332.6624,4947.276
5333.3045,5202.935
5333.9466,5449.632
5334.5888,5424.126
5335.2309,5294.957
5335.8731,5490.987
5336.5152,5744.53
5337.1574,5827.557
5337.7995,5702.839
5338.4417,5525.804
5339.0838,5425.672
5339.726,5457.834
5340.3681,5445.463
5341.0103,5160.309
5341.6524,5074.103
5342.2946,5052.703
5342.9367,4896.103
5343.5789,4661.595
5344.221,5225.417
5344.8631,5584.21
5345.5053,5478.84
5346.1474,5539.62
5346.7896,5550.057
5347.4317,5434.673
5348.0739,5211.266
5348.716,5152.747
5349.3582,5272.747
5350.0003,5512.91
5350.6425,5479.212
5351.2846,5415.971
5351.9268,5522.376
5352.5689,5622.429
5353.2111,5739.177
5353.8532,5982.795
5354.4954,6087.012
5355.1375,5893.66
5355.7797,5896.858
5356.4218,5893.454
5357.0639,5956.138
5357.7061,6273.364
5358.3482,6327.146
5358.9904,6438.065
5359.6325,6285.149
5360.2747,6297.534
5360.9168,6103.263
5361.559,6087.214
5362.2011,6169.127
5362.8433,5853.168
5363.4854,5844.675
5364.1276,5929.182
5364.7697,5729.209
5365.4119,5697.244
5366.054,5681.91
5366.6962,5509.64
5367.3383,5543.666
5367.9804,5540.264
5368.6226,5406.466
5369.2647,5289.515
5369.9069,5234.119
5370.549,5177.016
5371.1912,5149.478
5371.8333,5132.514
5372.4755,4892.519
5373.1176,4772.048
5373.7598,4752.443
5374.4019,4990.136
5375.0441,5217.251
5375.6862,5639.183
5376.3284,5846.445
5376.9705,5911.232
5377.6127,6092.528
5378.2548,6084.256
5378.897,5944.171
5379.5391,5842.517
5380.1812,5897.411
5380.8234,6075.872
5381.4655,6075.07
5382.1077,5836.887
5382.7498,5947.485
5383.392,5958.944
5384.0341,6011.626
5384.6763,5866.587
5385.3184,5891.642
5385.9606,5611.619
5386.6027,5621.496
5387.2449,5935.492
5387.887,5989.998
5388.5292,5857.579
5389.1713,5876.796
5389.8135,6055.153
5390.4556,5818.472
5391.0978,5639.34
5391.7399,5609.778
5392.382,5429.183
5393.0242,5565.32
5393.6663,5526.421
5394.3085,5509.332
5394.9506,5356.43
5395.5928,5160.708
5396.2349,5189.801
5396.8771,5339.166
5397.5192,5295.375
5398.1614,5258.932
5398.8035,5184.773
5399.4457,5279.399
5400.0878,5104.275
5400.73,5464.827
5401.3721,5643.317
5402.0143,5675.389
5402.6564,5610.002
5403.2985,5550.123
5403.9407,5405.438
5404.5828,5312.474
5405.225,5370.273
5405.8671,5351.404
5406.5093,5113.018
5407.1514,4844.123
5407.7936,4700.849
5408.4357,4600.437
5409.0779,4744.771
5409.72,4961.187
5410.3622,5261.325
5411.0043,5332.715
5411.6465,5309.431
5412.2886,5106.85
5412.9308,5036.063
5413.5729,5440.358
5414.2151,5688.467
5414.8572,5902.144
5415.4993,5653.465
5416.1415,5279.914
5416.7836,5104.556
5417.4258,4900.509
5418.0679,5267.061
5418.7101,6006.271
5419.3522,6182.186
5419.9944,6387.207
5420.6365,6489.983
5421.2787,6341.653
5421.9208,6138.806
5422.563,6124.062
5423.2051,6061.31
5423.8473,6011.899
5424.4894,6239.671
5425.1316,6255.012
5425.7737,5945.436
5426.4158,5906.972
5427.058,6005.277
5427.7001,5918.211
5428.3423,5975.639
5428.9844,6133.763
5429.6266,6011.303
5430.2687,5974.484
5430.9109,5769.842
5431.553,5436.652
5432.1952,5206.132
5432.8373,5368.787
5433.4795,5325.037
5434.1216,5767.832
5434.7638,5268.563
5435.4059,5555.683
5436.0481,5285.003
5436.6902,5411.355
5437.3324,5370.84
5437.9745,5767.626
5438.6166,5807.443
5439.2588,5875.811
5439.9009,6159.521
5440.5431,6369.604
5441.1852,6423.588
5441.8274,6480.931
5442.4695,6676.062
5443.1117,6651.252
5443.7538,6522.451
5444.396,6367.554
5445.0381,6203.758
5445.6803,6120.784
5446.3224,5962.437
5446.9646,5661.355
5447.6067,5365.238
5448.2489,5316.912
5448.891,5432.966
5449.5332,5573.532
5450.1753,5661.855
5450.8174,5632.96
5451.4596,6022.337
5452.1017,5991.645
5452.7439,6277.081
5453.386,5896.773
5454.0282,6042.258
5454.6703,5952.035
5455.3125,6018.056
5455.9546,5683.445
5456.5968,5457.69
5457.2389,5629.676
5457.8811,5488.876
5458.5232,5514.905
5459.1654,5843.82
5459.8075,6166.699
5460.4497,6333.735
5461.0918,6229.798
5461.7339,6130.064
5462.3761,6129.818
5463.0182,6057.254
5463.6604,5978.55
5464.3025,5844.109
5464.9447,5935.877
5465.5868,6038.646
5466.229,5901.661
5466.8711,6039.467
5467.5133,6209.662
5468.1554,6260.448
5468.7976,6422.285
5469.4397,6348.615
5470.0819,6299.153
5470.724,6096.143
5471.3662,6224.023
5472.0083,6156.442
5472.6505,6258.394
5473.2926,6248.647
5473.9347,5810.297
5474.5769,6141.801
5475.219,6099.178
5475.8612,5930.67
5476.5033,5688.559
5477.1455,5743.521
5477.7876,5778.231
5478.4298,5859.638
5479.0719,5796.01
5479.7141,5622.644
5480.3562,5406.034
5480.9984,5721.57
5481.6405,6063.391
5482.2827,6018.904
5482.9248,5943.314
5483.567,5895.81
5484.2091,5839.602
5484.8513,5872.602
5485.4934,6187.474
5486.1355,6295.183
5486.7777,6189.707
5487.4198,6435.172
5488.062,6352.982
5488.7041,6277.906
5489.3463,6259.774
5489.9884,6027.06
5490.6306,6250.112
5491.2727,6220.761
5491.9149,6317.248
5492.557,6505.544
5493.1992,6664.204
5493.8413,6646.03
5494.4835,6618.919
5495.1256,6388.971
5495.7678,6282.099
5496.4099,6473.19
5497.052,6293.717
5497.6942,6329.293
5498.3363,6121.851
5498.9785,6339.38
5499.6206,6231.704
5500.2628,5880.357
5500.9049,6296.121
5501.5471,6302.185
5502.1892,6262.524
5502.8314,6225.311
5503.4735,6148.345
5504.1157,5947.548
5504.7578,5783.684
5505.4,6030.52
5506.0421,6208.059
5506.6843,6089.561
5507.3264,6002.198
5507.9686,6121.662
5508.6107,6131.069
5509.2528,5921.949
5509.895,6119.827
5510.5371,6277.255
5511.1793,6344.384
5511.8214,6472.271
5512.4636,6170.352
5513.1057,5860.784
5513.7479,5841.569
5514.39,5770.365
5515.0322,5580.28
5515.6743,5917.658
5516.3165,5846.779
5516.9586,6066.09
5517.6008,5954.833
5518.2429,6094.767
5518.8851,6389.268
5519.5272,6728.766
5520.1693,6491.76
5520.8115,6577.823
5521.4536,6585.394
5522.0958,6692.722
5522.7379,6592.696
5523.3801,6570.405
5524.0222,6657.661
5524.6644,6659.938
5525.3065,6670.251
5525.9487,6520.209
5526.5908,6320.026
5527.233,6323.492
5527.8751,6306.992
5528.5173,6165.448
5529.1594,6122.176
5529.8016,6150.127
5530.4437,6097.729
5531.0859,6014.347
5531.728,6065.986
5532.3701,6425.66
5533.0123,6835.568
5533.6544,6744.376
5534.2966,6517.24
5534.9387,6557.649
5535.5809,6588.385
5536.223,6499.589
5536.8652,6467.35
5537.5073,6585.396
5538.1495,6324.698
5538.7916,6521.267
5539.4338,6422.348
5540.0759,6962.661
5540.7181,6776.875
5541.3602,6757.58
5542.0024,6614.536
5542.6445,6897.526
5543.2867,6868.218
5543.9288,6684.457
5544.5709,6662.522
5545.2131,6582.39
5545.8552,6426.185
5546.4974,6343.389
5547.1395,6751.356
5547.7817,6851.216
5548.4238,6741.638
5549.066,6716.074
5549.7081,6715.132
5550.3503,6816.831
5550.9924,6974.95
5551.6346,7041.164
5552.2767,6898.894
5552.9189,6823.063
5553.561,6952.524
5554.2032,7160.439
5554.8453,7058.747
5555.4874,7063.161
5556.1296,6901.975
5556.7717,6706.728
5557.4139,6812.396
5558.056,6699.071
5558.6982,6522.827
5559.3403,6707.315
5559.9825,6715.276
5560.6246,6748.065
5561.2668,6697.86
5561.9089,6620.373
5562.5511,6798.346
5563.1932,6617.413
5563.8354,6490.59
5564.4775,6567.736
5565.1197,6607.849
5565.7618,6624.88
5566.404,6230.096
5567.0461,6208.804
5567.6882,6253.104
5568.3304,6322.797
5568.9725,6166.779
5569.6147,6305.154
5570.2568,6378.744
5570.899,6252.75
5571.5411,6377.749
5572.1833,6391.885
5572.8254,6353.932
5573.4676,6396.082
5574.1097,6317.73
5574.7519,6256.799
5575.394,6276.396
5576.0362,6353.854
5576.6783,6425.555
5577.3205,6528.633
5577.9626,6648.801
5578.6047,6694.205
5579.2469,6657.396
5579.889,6492.721
5580.5312,6650.487
5581.1733,6615.769
5581.8155,6671.201
5582.4576,6687.355
5583.0998,6869.494
5583.7419,6414.782
5584.3841,6710.887
5585.0262,6427.324
5585.6684,6385.36
5586.3105,6658.136
5586.9527,6319.796
5587.5948,5916.531
5588.237,5900.914
5588.8791,5883.087
5589.5213,5657.709
5590.1634,5538.095
5590.8055,5466.774
5591.4477,5352.247
5592.0898,5536.185
5592.732,5933.447
5593.3741,6118.106
5594.0163,6318.719
5594.6584,6297.004
5595.3006,6255.959
5595.9427,6326.499
5596.5849,6203.408
5597.227,6021.562
5597.8692,6081.496
5598.5113,6356.882
5599.1535,6432.824
5599.7956,6245.517
5600.4378,6112.305
5601.0799,6022.311
5601.7221,5987.851
5602.3642,6016.91
5603.0063,6216.859
5603.6485,6196.358
5604.2906,6046.195
5604.9328,5986.237
5605.5749,6284.848
5606.2171,6506.224
5606.8592,6688.616
5607.5014,7122.666
5608.1435,7010.195
5608.7857,7066.311
5609.4278,7123.412
5610.07,7181.928
5610.7121,6889.301
5611.3543,7348.806
5611.9964,7069.468
5612.6386,6913.049
5613.2807,6948.497
5613.9228,7016.024
5614.565,6634.668
5615.2071,6470.926
5615.8493,6411.83
5616.4914,6315.776
5617.1336,6181.043
5617.7757,5872.966
5618.4179,5805.495
5619.06,5928.654
5619.7022,6145.253
5620.3443,6564.3
5620.9865,6759.436
5621.6286,6603.51
5622.2708,6664.478
5622.9129,6472.386
5623.5551,6305.714
5624.1972,6634.237
5624.8394,6717.818
5625.4815,6565.358
5626.1236,6476.22
5626.7658,6169.881
5627.4079,6282.997
5628.0501,6504.316
5628.6922,6555.951
5629.3344,6674.024
5629.9765,6914.157
5630.6187,6646.094
5631.2608,6615.975
5631.903,7007.313
5632.5451,6886.353
5633.1873,7085.521
5633.8294,7039.559
5634.4716,6999.785
5675.569,7128.701
5676.2111,7013.486
5676.8533,6930.475
5677.4954,6975.453
5678.1376,6968.317
5678.7797,6764.334
5679.4219,6765.846
5680.064,6933.781
5680.7062,6866.389
5681.3483,6850.737
5681.9905,6887.482
5682.6326,6844.1
5683.2748,6753.717
5683.9169,6831.967
5684.559,6661.562
5685.2012,6296.754
5685.8433,6331.119
5686.4855,6631.996
5687.1276,6751.619
5687.7698,6646.814
5688.4119,6472.654
5689.0541,6454.727
5689.6962,6434.392
5690.3384,6434.564
5690.9805,6438.7
5691.6227,6491.861
5692.2648,6955.199
5692.907,6886.424
5693.5491,6907.756
5694.1913,6880.216
5694.8334,6903.195
5695.4756,7190.277
5696.1177,7097.3
5696.7598,6745.854
5697.402,6960.62
5698.0441,7052.347
5698.6863,7039.698
5699.3284,6903.598
5699.9706,6911.732
5700.6127,6680.834
5701.2549,6554.853
5701.897,6503.275
5702.5392,6638.539
5703.1813,6814.326
5703.8235,6559.07
5704.4656,6439.907
5705.1078,6584.237
5705.7499,6611.696
5706.3921,6535.766
5707.0342,6586.25
5707.6763,6503.862
5708.3185,6342.853
5708.9606,6349.658
5709.6028,6415.089
5710.2449,6518.553
5710.8871,6302.851
5711.5292,6105.27
5712.1714,6246.901
